strain,stress
0.00134,49.882
0.00152,53.415
0.00172,58.527
0.00193,63.176
0.00214,68.147
0.00234,71.832
0.00253,76.071
0.00274,80.275
0.00294,84.936
0.0031,90.585
0.00334,96.965
0.00352,100.34
0.00374,105.55
0.00395,108.68
0.00418,112.22
0.00439,114.37
0.00462,115.14
0.00479,115.88
0.00497,118.32
0.00513,120.81
0.00536,124.88
0.00561,126.63
0.00582,126.47
0.00596,127.08
0.0062,128.93
0.00637,129.25
0.00659,130.58
0.00675,131.49
0.00693,135.36
0.00719,136.48
0.00738,137.27
0.00762,137.61
0.00775,138.36
0.00798,139.54
0.00817,140.44
0.00836,141.59
0.00861,142.33
0.00872,143.14
0.00895,146.62
0.00917,147.36
0.0094,147.01
0.00962,146.27
0.00982,143.98
0.00995,145.42
0.0102,146.03
0.0104,146.68
0.0106,146.59
0.01081,147.29
0.01096,148.81
0.01119,149.73
0.01135,150.79
0.01161,151.47
0.01174,152.17
0.012,155.5
0.01221,155.35
0.01244,154.61
0.0127,151.21
0.0128,148.79
0.01302,149.22
0.01318,150.17
0.01332,153.76
0.01358,156.5
0.01382,156.88
0.01401,155.23
0.01422,154.43
0.01436,154.23
0.01458,155.24
0.01481,154.34
0.01497,154.46
0.01516,154.98
0.01537,155.43
0.01559,156.09
0.01583,155.32
0.01598,154.39
0.01617,155.22
0.01637,156.19
0.01659,157.28
0.01682,157.81
0.01701,156.27
0.0172,156.03
0.01741,155.72
0.01763,155.8
0.01779,154.75
0.01797,155.86
0.0182,157.1
0.01837,156.78
0.01862,158.23
0.01881,157.61
0.019,157.2
0.01922,157.03
0.01939,156.81
0.0196,156.58
0.01978,157.07
0.01997,157.85
0.02021,158.05
0.02038,158.18
0.02056,159.04
0.02078,159.65
0.02097,160.53
0.02117,160.24
0.02136,160.53
0.02155,162.35
0.02178,163.22
0.02202,162.65
0.02218,161.11
0.02243,160.52
0.02261,158.83
0.02278,158.65
0.023,158.36
0.02316,158.84
0.02339,160.09
0.0236,159.79
0.02378,159.97
0.02396,160.54
0.02417,161.48
0.0244,162.01
0.02459,160.6
0.02482,160.67
0.02498,159.92
0.02519,160.72
0.02537,161.41
0.02559,161.82
0.02581,161.15
0.026,160.39
0.02622,159.49
0.02641,158.41
0.02658,158.01
0.02677,158.36
0.02697,159.24
0.02717,160
0.0274,160.06
0.02756,160.33
0.02777,161.15
0.02798,161.35
0.02819,161.71
0.02839,160.89
0.0286,160.85
0.02877,161.05
0.02899,161.59
0.02919,161.75
0.02936,162.5
0.02962,162.86
0.02982,161.43
0.02999,161.15
0.03022,160.89
0.0304,160.67
0.03059,161.08
0.03082,161.06
0.03101,160.61
0.0312,160.97
0.03142,160.99
0.0316,161.01
0.03181,160.89
0.03201,161.08
0.03218,161.47
0.03238,162.01
0.03261,162.16
0.0328,160.7
0.033,160.35
0.0332,160.14
0.03338,160.16
0.03361,160.27
0.03378,160.54
0.034,161.27
0.03423,161.41
0.03441,161.43
0.03462,160.59
0.03482,160.63
0.03501,161
0.03521,160.8
0.0354,162.19
0.0356,161.85
0.03581,161.47
0.036,161.07
0.03622,160.13
0.03643,159.14
0.0366,158.88
0.03681,159.43
0.037,159.82
0.03719,160.22
0.03742,160.43
0.03761,160.7
0.03781,160.84
0.03803,160.15
0.03821,160.15
0.0384,160.25
0.03861,160.04
0.03878,160.22
0.039,159.19
0.0392,159.65
0.03938,159.31
0.03957,160.59
0.03978,162.12
0.03998,163.41
0.04022,163.35
0.0404,162.87
0.04062,162.46
0.04082,161.89
0.04101,160.85
0.0412,160.22
0.0414,159.88
0.04159,159.59
0.0418,158.8
0.04197,157.89
0.04217,159.01
0.04239,158.82
0.0426,159.03
0.04279,158.12
0.043,158.24
0.0432,157.95
0.04341,157.7
0.04362,157.56
0.04378,157.52
0.044,157.91
0.0442,157.34
0.04437,157.74
0.04459,158.1
0.0448,157.6
0.04498,156.83
0.04519,156.09
0.04537,156.64
0.04558,157.51
0.04579,157.34
0.04599,157.47
0.04619,157.34
0.04642,157.81
0.04661,156.83
0.04681,157.01
0.04702,156.26
0.0472,155.54
0.0474,155.15
0.04758,155.56
0.04779,156.33
0.04799,155.95
0.04818,155.95
0.04839,156.39
0.04861,156.55
0.04881,156.38
0.049,155.89
0.04921,156.31
0.04941,155.93
0.04963,155.62
0.04981,155.66
0.05001,155.19
0.05022,155.22
0.0504,154.79
0.0506,155.53
0.05082,155.31
0.05099,154.79
0.05119,154.84
0.0514,154.53
0.0516,154.04
0.05181,154.06
0.052,153.63
0.05221,153.97
0.05241,153.32
0.05262,153.24
0.05279,152.86
0.05302,153.22
0.0532,153.59
0.0534,153.37
0.05361,154.06
0.05378,154.21
0.05399,155
0.0542,154.86
0.05437,154.6
0.05458,154.73
0.0548,154.75
0.055,154.87
0.0552,154.38
0.05542,154.45
0.05561,154.1
0.0558,153.66
0.056,153.98
0.05621,153.91
0.05641,153.8
0.05659,153.78
0.0568,153.46
0.057,153.77
0.05717,152.91
0.0574,153.5
0.05758,152.71
0.05778,152.83
0.058,152.39
0.05819,152.75
0.0584,152.5
0.05861,152.55
0.05881,152.5
0.059,152.17
0.0592,152.53
0.0594,152.49
0.0596,152.73
0.05981,152.57
0.05999,152.35
0.0602,151.99
0.06039,152.33
0.06058,151.86
0.06081,151.9
0.06098,150.9
0.0612,151.14
0.06139,150.38
0.06159,150.73
0.06181,150.66
0.062,150.34
0.06218,150.1
0.06239,150.26
0.06262,150.79
0.0628,150.16
0.063,150.09
0.0632,150.56
0.06341,150.19
0.06364,149.32
0.06381,149.11
0.06402,148.6
0.06422,148.58
0.06441,148.27
0.06462,148.1
0.06483,148.4
0.06499,148.87
0.06521,148.69
0.0654,149.07
0.06561,149.38
0.06582,149.01
0.06598,148.66
0.0662,148.62
0.06641,148.31
0.06657,148.56
0.06679,148.75
0.067,148.98
0.06719,148.68
0.0674,149
0.0676,149.29
0.06779,148.99
0.06803,148.97
0.06821,148
0.0684,148.95
0.06863,148.9
0.0688,149.06
0.06901,148.73
0.06923,148.48
0.06941,148.25
0.06961,148.63
0.06985,148.77
0.07002,148.15
0.07022,147.31
0.07042,147.73
0.07061,148.11
0.07084,147.98
0.07101,147.77
0.0712,147.74
0.07143,148.63
0.07161,147.43
0.07183,147.81
0.07202,147.27
0.07218,147.54
0.07243,147.62
0.07263,147.35
0.0728,147.1
0.07302,147.31
0.07323,146.63
0.07339,146.42
0.07361,146.54
0.07379,145.8
0.074,146.2
0.07423,146.32
0.07439,145.96
0.0746,146.21
0.07481,146.17
0.07499,145.79
0.07519,146.61
0.07541,145.97
0.07558,145.62
0.07583,145.03
0.076,145.25
0.07619,145.46
0.07641,146.14
0.07661,145.79
0.0768,145.3
0.07701,145.23
0.07718,145.73
0.07741,145.46
0.0776,144.6
0.07776,145.49
0.07802,146.3
0.07821,145.46
0.07838,144.89
0.07862,145.25
0.0788,144
0.07899,144.75
0.07923,144.41
0.07941,144.31
0.07961,143.7
0.07981,143.47
0.07999,144.07
0.08022,143.96
0.08042,143.47
0.08059,143.34
0.08082,143.44
0.08101,142.91
0.08119,143.05
0.08142,143.41
0.08161,143.06
0.0818,143.26
0.08203,142.96
0.0822,142.19
0.08238,142.77
0.08261,143.34
0.08281,143.46
0.08301,142.84
0.08325,142.59
0.0834,141.6
0.08361,141.65
0.08382,142.19
0.08399,141.73
0.08422,141.74
0.0844,141.66
0.0846,141.13
0.08482,141.28
0.08501,141.43
0.0852,141.07
0.08542,141.04
0.08559,140.75
0.0858,141.68
0.08604,141.12
0.08619,141.42
0.0864,141.34
0.08664,140.83
0.08678,140.45
0.08702,141.13
0.08722,141.39
0.0874,140.56
0.08764,140.18
0.0878,139.82
0.088,139.98
0.08824,140
0.0884,139.61
0.0886,140.24
0.08882,140.21
0.08899,140.6
0.0892,140.79
0.08942,140.13
0.08961,139.91
0.08982,138.98
0.09003,138.93
0.0902,138.36
0.0904,139.06
0.09062,138.99
0.0908,139.13
0.09103,138.73
0.09119,138.4
0.09141,138.42
0.09163,138.46
0.0918,138.67
0.092,139.07
0.09224,138.61
0.0924,137.95
0.09261,138.05
0.09283,138.65
0.09302,137.78
0.09322,137.42
0.09342,137.92
0.09361,137.56
0.09384,137.88
0.09401,137.07
0.0942,137.69
0.09445,137.38
0.09462,137.15
0.0948,137.28
0.09503,137.79
0.09523,137.39
0.09542,136.86
0.09562,136.94
0.09581,136.87
0.09603,136.9
0.09624,137.11
0.09642,136.21
0.09661,136.15
0.09681,136.58
0.09701,135.76
0.09722,136.21
0.09739,135.71
0.09761,135.82
0.09782,135.26
0.09797,136.01
0.0982,136.31
0.0984,135.94
0.09855,136.25
0.09877,137.37
0.09899,137.75
0.09918,137.48
0.09939,137.52
0.09962,137.48
0.09978,136.09
0.1,136.73
0.10023,136.22
0.10041,135.14
0.10065,134.95
0.10082,132.9
0.10102,132.68
0.10122,131.85
0.10139,132.14
0.10161,132.63
0.10182,133.25
0.102,132.94
0.10219,132.96
0.10241,133.74
0.10259,133.7
0.10281,133.71
0.10301,133.98
0.10319,133.61
0.10341,133.89
0.1036,132.86
0.10379,131.98
0.10399,131.83
0.10416,132.01
0.10436,132.61
0.10461,132.36
0.10476,132.03
0.10498,132.12
0.10518,132.92
0.10537,133.54
0.10559,133.56
0.10579,133.89
0.106,133.83
0.10621,133.39
0.10642,133.02
0.10661,131.46
0.10682,131.78
0.10702,130.8
0.10719,131.16
0.10741,131.63
0.10759,132.09
0.10782,132
0.108,130.9
0.10819,131.54
0.10841,131.69
0.10863,131.28
0.1088,130.06
0.10898,129.86
0.10919,130.48
0.10937,130.51
0.10959,129.82
0.10978,130.45
0.10998,130.59
0.11019,130.64
0.11038,130.21
0.11057,130.49
0.11082,130.45
0.11101,129.29
0.11117,128.61
0.1114,129.36
0.1116,129.78
0.11179,130.32
0.11202,130.52
0.11221,129.88
0.11242,129.43
0.11262,129.1
0.1128,129.35
0.11304,129.19
0.11323,128.62
0.11342,128.49
0.11363,127.88
0.1138,127.19
0.11399,128.02
0.11422,127.48
0.11439,127.61
0.11459,127.82
0.11481,127.61
0.11496,127.94
0.1152,128.1
0.11541,127.76
0.11558,126.96
0.11578,127.32
0.11598,127.92
0.11618,127.21
0.11639,127.32
0.11657,127.71
0.11677,127.73
0.117,128.14
0.11719,127.3
0.11738,128.06
0.11761,128.08
0.11781,128.32
0.11801,127.28
0.1182,127.4
0.11841,127.36
0.1186,126.61
0.1188,127.08
0.119,126.53
0.1192,126.22
0.11939,126.46
0.11962,126.28
0.11981,125.49
0.12,125.77
0.12023,124.99
0.12042,124.3
0.1206,124.87
0.12079,125.18
0.12102,124.37
0.12121,124.48
0.1214,124.84
0.12161,125.54
0.1218,125.33
0.12201,124.73
0.12219,125.2
0.12238,125.71
0.12262,125.76
0.12283,124.8
0.123,124.01
0.12321,123.89
0.1234,124.14
0.1236,123.87
0.12378,124.23
0.12399,124.57
0.1242,123.87
0.12439,124.03
0.1246,124.67
0.1248,123.8
0.12502,123.68
0.12516,122.98
0.12539,124.12
0.12558,124.52
0.12579,124.23
0.126,123.95
0.12618,123.73
0.1264,123.99
0.1266,123.31
0.12677,123.34
0.12699,123.99
0.1272,124.17
0.1274,123.59
0.12761,123.12
0.1278,122.93
0.12798,123.53
0.12822,122.7
0.12842,123.13
0.1286,122.81
0.12884,122.64
0.12899,122.87
0.1292,122.51
0.12943,123.17
0.1296,122.98
0.12981,122.9
0.13003,122.14
0.13017,122.16
0.13038,122.41
0.13062,122.38
0.13077,121.81
0.13096,122.14
0.13119,122.6
0.1314,122.17
0.13159,121.17
0.1318,121.96
0.13198,121.41
0.13223,121.25
0.1324,121.23
0.1326,121.71
0.13283,121.47
0.13301,120.72
0.13319,121.3
0.13342,121.2
0.13361,120.74
0.13379,119.97
0.13397,120.82
0.13417,121.53
0.13438,120.9
0.13461,120.71
0.13479,119.75
0.135,119.19
0.13522,119.73
0.1354,118.48
0.13562,119.18
0.13582,119.16
0.136,118.81
0.13619,118.74
0.13639,119.59
0.13657,119.34
0.13681,119.54
0.137,118.92
0.13716,118.74
0.1374,119.28
0.13758,119.58
0.13783,120
0.13803,119.27
0.1382,118.47
0.13842,118.68
0.13861,119.21
0.13881,119.6
0.13903,119.29
0.13922,118.36
0.13939,119.03
0.13963,118.47
0.13979,118.68
0.14,119.37
0.14024,119.53
0.14042,118.51
0.14059,118.04
0.14083,118.05
0.14102,117.86
0.14125,117.45
0.14147,116.79
0.14159,116.4
0.14183,117.4
0.14204,117.29
0.14222,116.55
0.14244,116.57
0.14261,116.77
0.14282,116.69
0.14302,115.66
0.1432,116.5
0.14338,116.75
0.14362,117.2
0.14381,116.07
0.14399,115.53
0.14421,116.72
0.14442,116.77
0.14463,116.88
0.14484,115.98
0.145,115.67
0.14522,116.53
0.14543,116.89
0.14562,116.78
0.14584,115.96
0.14602,115.54
0.1462,116.39
0.1464,116.41
0.14663,116.17
0.14679,115.37
0.14701,115.67
0.14718,115.5
0.14739,115.52
0.14761,114.78
0.14778,114.59
0.148,115.39
0.14823,115.22
0.14842,115.85
0.14863,114.93
0.14882,114.56
0.149,115.2
0.14921,115.18
0.14941,114.77
0.14959,115.05
0.1498,114.9
0.15001,114.69
0.15018,113.87
0.15038,114.39
0.15058,114.63
0.15079,114.6
0.151,114
0.15119,113.76
0.15139,113.29
0.1516,112.71
0.15179,113.66
0.15202,114.21
0.15221,113.84
0.15241,113.81
0.15261,112.88
0.1528,113.32
0.15299,113.51
0.15322,113.67
0.1534,113.39
0.15358,113.25
0.15382,113.13
0.15399,112.34
0.15416,113.42
0.15441,113.8
0.15461,112.99
0.15476,112.76
0.15499,113.37
0.15518,113.25
0.15537,112.74
0.1556,112.5
0.15577,112.17
0.15597,112.34
0.1562,112.52
0.15636,112.27
0.1566,112.25
0.15679,112.05
0.15699,111.97
0.15719,111.78
0.15739,111.65
0.15758,112.18
0.1578,111.9
0.15802,111.83
0.15819,111.77
0.1584,111.92
0.1586,111.45
0.15877,111.35
0.159,111.61
0.15919,111.9
0.15939,111.81
0.15961,111.32
0.15977,110.75
0.15998,110.89
0.16018,110.71
0.16038,110.6
0.16059,111.29
0.16077,110.74
0.16098,110.88
0.16119,110.72
0.1614,110.78
0.16158,109.98
0.1618,110.23
0.16199,110.06
0.16216,109.73
0.16238,110.38
0.16259,110.01
0.16277,109.72
0.16299,109.72
0.16318,109.8
0.16337,109.42
0.16358,109.53
0.16378,109.72
0.16399,109.72
0.1642,109.14
0.16437,109.57
0.1646,109.59
0.16481,109.6
0.16498,109.21
0.16522,109.2
0.1654,109.01
0.1656,109.25
0.16582,109.32
0.166,108.72
0.16619,108.97
0.16643,109.31
0.16661,109.06
0.1668,108.79
0.16701,107.97
0.16719,107.76
0.16735,107.96
0.1676,109.21
0.16779,109.36
0.16799,108.95
0.1682,108.76
0.1684,108.24
0.1686,108.42
0.16883,108.17
0.16902,107.82
0.16922,107.26
0.1694,107.9
0.16961,108.05
0.16981,107.33
0.17001,107.28
0.17019,107.55
0.17041,107.37
0.1706,107.1
0.17077,106.63
0.17102,107.27
0.17122,107.16
0.17143,107.18
0.17163,107.26
0.17182,106.67
0.17204,106.87
0.17222,106.36
0.17241,107.05
0.17262,106.55
0.17281,106.7
0.17301,106.97
0.17321,106.54
0.17342,106.42
0.17359,106.38
0.17381,106.94
0.17402,107.22
0.1742,107.12
0.17441,107.22
0.17464,107.02
0.17481,106.71
0.17505,107.05
0.17523,106.91
0.17543,106.88
0.17564,106.29
0.17583,106.39
0.17602,106.18
0.17623,106.06
0.17639,105.52
0.17661,106.12
0.17681,105.71
0.17699,105.26
0.17719,105.52
0.17743,105.54
0.1776,104.66
0.17782,105.13
0.17801,104.87
0.17821,105.31
0.17841,105.08
0.17863,105.31
0.17881,104.99
0.179,104.22
0.17919,104.19
0.17937,104.03
0.17961,104.51
0.17979,103.95
0.17999,103.95
0.1802,103.61
0.18039,103.52
0.1806,103.76
0.18081,103.68
0.18101,103.7
0.18121,103.61
0.18141,103.45
0.18159,103.22
0.18179,102.73
0.18199,102.57
0.18217,102.57
0.18239,102.97
0.18262,103.43
0.18279,103.23
0.18301,103.62
0.18321,103.42
0.1834,103.78
0.18363,103.45
0.18383,103.31
0.18402,102.92
0.18421,102.61
0.18441,102.76
0.18459,102.65
0.1848,102.63
0.18499,102.63
0.18517,102.26
0.1854,102.46
0.18558,102.26
0.18579,102.68
0.18601,102.58
0.1862,102.49
0.18642,103.04
0.18662,102.65
0.18679,103.34
0.18703,103.5
0.18724,103.26
0.18741,102.63
0.18761,102.55
0.18783,102.49
0.18798,102.22
0.1882,102.45
0.18841,102.08
0.18858,101.63
0.1888,101.92
0.18901,101.64
0.18919,101.74
0.18933,103.21
0.18961,105.64
0.18981,105.89
0.19,105.98
0.19024,105.79
0.19043,103.66
0.19061,102.57
0.1908,102.25
0.191,102.27
0.1912,101.69
0.1914,101.32
0.19159,101.16
0.19181,101.2
0.192,100.66
0.19222,100.68
0.19242,100.11
0.19261,100.14
0.19281,100.01
0.19302,100.09
0.1932,100.05
0.1934,99.831
0.19361,100.07
0.19378,99.479
0.19399,99.921
0.19418,99.836
0.19437,99.799
0.1946,99.517
0.19477,99.686
0.195,100.07
0.19522,99.166
0.19541,98.301
0.1956,98.621
0.19582,98.31
0.196,98.466
0.19619,98.702
0.19641,98.971
0.1966,98.683
0.19679,98.662
0.197,98.97
0.19719,98.731
0.19739,98.8
0.19759,98.497
0.19781,98.694
0.198,98.197
0.1982,98.678
0.19843,98.572
0.19862,98.222
0.19883,97.829
0.19901,98.02
0.19921,97.821
0.19941,97.969
0.19957,97.677
0.19981,98.199
0.20001,97.873
0.20021,97.921
0.2004,97.272
0.20061,97.685
0.20082,97.766
0.20103,97.127
0.20123,97.46
0.20142,97.337
0.20163,97.645
0.20182,97.783
0.20203,97.364
0.20224,96.96
0.20242,96.614
0.20261,96.51
0.20281,96.987
0.20298,96.782
0.20321,97.151
0.20342,96.772
0.2036,96.775
0.20381,96.965
0.20402,97.406
0.20421,97.285
0.20444,96.767
0.20463,96.294
0.20481,96.381
0.20502,97.629
0.20524,96.973
0.20542,95.647
0.2056,95.648
0.20577,96.041
0.20599,97.001
0.20622,96.829
0.2064,95.832
0.2066,96.119
0.20679,96.464
0.207,97.099
0.20722,96.519
0.20743,96.693
0.20758,96.411
0.20782,97.208
0.20804,96.96
0.2082,96.18
0.20839,96.751
0.20861,97.057
0.20879,96.754
0.20901,96.234
0.20918,95.447
0.20937,95.693
0.20957,95.943
0.20978,96.501
0.21001,96.426
0.21021,95.492
0.2104,95.662
0.21059,95.522
0.21082,96.226
0.211,96.283
0.21123,96.509
0.21142,95.618
0.21161,95.437
0.21182,95.557
0.21201,95.162
0.21219,95.638
0.2124,95.632
0.21258,95.768
0.21278,96.186
0.21301,95.684
0.2132,94.905
0.21338,94.482
0.21358,94.691
0.21379,95.84
0.21401,95.374
0.21422,94.989
0.2144,94.753
0.2146,94.758
0.21482,95.053
0.21502,94.967
0.21522,94.747
0.21542,94.523
0.2156,94.956
0.21582,94.726
0.21601,94.683
0.21621,94.667
0.21639,94.504
0.21662,94.522
0.21679,93.587
0.217,93.534
0.21719,93.295
0.2174,93.515
0.21761,93.317
0.21782,92.896
0.21801,93.306
0.21823,93.259
0.21842,93.251
0.21862,93.104
0.21884,93.213
0.21901,93.36
0.21921,92.786
0.21942,92.566
0.21959,92.406
0.21976,92.948
0.22,93.834
0.2202,93.624
0.22041,92.787
0.22059,92.676
0.22078,93.257
0.22101,93.29
0.22123,93.069
0.2214,93.296
0.22162,93.595
0.22184,93.665
0.22202,92.773
0.22222,92.88
0.2224,93.607
0.2226,93.807
0.22285,93.668
0.22301,92.592
0.2232,92.762
0.22338,92.653
0.22357,93.281
0.22379,93.529
0.224,93.01
0.22417,93.172
0.22438,93.209
0.22459,93.214
0.22479,93.853
0.22501,92.994
0.22521,92.589
0.22539,92.566
0.2256,93.033
0.22582,93.276
0.226,92.883
0.22622,92.738
0.22642,92.242
0.2266,92.414
0.22679,92.431
0.22702,93.46
0.22721,92.921
0.22743,92.233
0.22762,92.039
0.22779,92.165
0.22801,92.814
0.22821,92.652
0.22838,91.529
0.2286,92.27
0.22879,91.999
0.22897,92.593
0.22921,92.354
0.22939,92.176
0.22957,92.385
0.22981,92.13
0.22998,91.759
0.23017,91.87
0.2304,92.414
0.2306,91.766
0.23078,91.47
0.23099,91.949
0.23118,92.196
0.23141,92.182
0.23163,91.438
0.23179,91.423
0.232,91.895
0.23223,91.703
0.23241,91.179
0.2326,90.688
0.23281,91.877
0.23299,92.161
0.23323,92.474
0.23344,91.939
0.23359,91.264
0.23381,92.135
0.23402,92.33
0.23422,92.085
0.23445,91.214
0.23462,90.299
0.2348,90.454
0.23499,90.705
0.2352,91.299
0.2354,91.122
0.23563,90.418
0.23581,90.245
0.23598,90.535
0.23619,91.081
0.2364,90.806
0.23659,90.422
0.23678,90.352
0.23697,91.548
0.23721,91.764
0.23741,91.293
0.2376,90.304
0.23781,90.007
0.238,90.272
0.23818,90.518
0.23844,90.51
0.23863,89.95
0.23878,89.896
0.239,90.679
0.23922,90.893
0.2394,90.123
0.23963,89.828
0.2398,89.667
0.24,90.544
0.24024,89.985
0.24039,90.021
0.24061,90.497
0.24082,89.746
0.24101,89.743
0.24121,89.963
0.24142,90.083
0.2416,90.096
0.24182,89.572
0.24204,89.493
0.24221,89.585
0.24242,89.564
0.24262,89.763
0.24281,89.917
0.24304,89.998
0.24322,89.75
0.24343,90.186
0.24365,89.528
0.24381,89.418
0.24403,89.564
0.24423,89.098
0.24442,89.363
0.2446,89.35
0.24484,89.246
0.24503,89.159
0.24521,89.38
0.24544,89.83
0.24563,89.3
0.24584,88.696
0.24604,88.122
0.24621,88.779
0.24642,89.64
0.24664,89.421
0.24682,89.287
0.24702,89.037
0.24724,89.075
0.24743,88.552
0.24763,88.269
0.24783,88.844
0.248,89.283
0.24823,89.434
0.24845,89.032
0.24864,88.229
0.24883,87.97
0.24902,88.655
0.24923,88.969
0.24943,88.332
0.24964,88.655
0.24984,88.45
0.25003,88.073
0.25024,88.581
0.25043,88.432
0.25066,87.703
0.25079,87.687
0.25101,88.84
0.25124,88.872
0.25143,88.395
0.25161,88.222
0.25184,87.741
0.25203,87.406
0.2522,87.925
0.25244,88.108
0.25262,87.608
0.25282,87.117
0.25304,87.633
0.25318,88.113
0.25344,88.954
0.25365,88.088
0.25382,87.28
0.254,87.087
0.25422,87.585
0.2544,88.012
0.25461,87.667
0.25482,87.848
0.25503,87.358
0.25523,86.515
0.25541,86.853
0.25559,87.782
0.25582,88.065
0.25602,87.861
0.25621,87.498
0.25642,87.403
0.25661,87.391
0.25681,87.418
0.25702,86.991
0.25722,87.044
0.2574,86.924
0.25762,86.353
0.25781,86.703
0.258,87.059
0.25823,87.101
0.25841,86.764
0.2586,86.626
0.25885,86.84
0.25901,86.62
0.25923,86.419
0.25942,86.847
0.25962,86.836
0.25983,86.922
0.26005,86.306
0.26022,86.129
0.26042,86.687
0.26064,87.389
0.26081,87.056
0.26104,86.864
0.26123,86.503
0.26141,86.298
0.26163,86.477
0.26184,85.873
0.26202,86.096
0.26221,86.207
0.26243,86.59
0.2626,86.3
0.26281,86.215
0.26304,86.211
0.26319,85.658
0.26341,85.965
0.26361,85.763
0.26378,85.678
0.26399,86.384
0.26418,86.119
0.26441,86.228
0.26462,85.502
0.2648,85.263
0.26499,85.553
0.26519,85.826
0.26544,86.091
0.26562,85.232
0.26582,85.51
0.26601,85.876
0.26622,85.991
0.26644,85.545
0.26659,85.362
0.2668,85.784
0.26701,85.6
0.26719,85.206
0.26738,85.584
0.26759,85.439
0.26778,85.511
0.26799,85.553
0.26818,85.294
0.2684,85.201
0.2686,84.55
0.26882,84.69
0.26899,84.984
0.26921,85.335
0.26942,85.434
0.26961,85.245
0.26981,84.738
0.26999,84.826
0.27018,85.229
0.27039,85.273
0.27058,84.897
0.27078,85.379
0.271,85.091
0.27122,84.595
0.27139,84.364
0.27162,84.903
0.27182,84.731
0.27199,84.782
0.27224,84.892
0.27241,84.213
0.27259,84.182
0.2728,84.253
0.27301,84.55
0.27318,84.179
0.27338,84.134
0.27359,84.762
0.27381,85.107
0.27403,84.877
0.27424,84.712
0.27442,83.774
